# Transmission through ionization/dissociation front produced by UV and 
# X-rays from a GRB.  Spectrum calculated by B.T. Draine
# References:
# Draine, B.T. 2000: Gamma Ray Bursts in Molecular Clouds: H2 Absorption
#     and Fluorescence, ApJ 532, 273
# Draine, B.T., & Hao, L. 2002, Gamma Ray Burst in a Molecular Cloud:
#     Destruction of Dust and H2, and Emergent Spectrum, ApJ 569, 780
# 
#  1.000E+03 = n_H (cm-3)
#     -0.500 = beta ( L_nu propto nu^{beta} )
# 
# N(H), N(H2+), and N(H2_vJ) from h2abs_nvj.dat                                   
#      28765 H2 absorption lines from 299 levels of H2
#     222969 = NWAV = number of wavelengths
#       2771 = 2*KKMAX+1 points in smoothing kernel
#      260.0 = lambda/FWHM(lambda) in final spectrum
#  1.002E+03 = time (s)
#  3.596E+19 = N(H) (cm-2)
#  6.732E+16 = N(H2+) (cm-2)
#  5.905E-01 = tau_d
#       1596 = number of output frequencies
# 
# transmission as a function of frequency
#   f (cm-1)   I/I_0   tau(gas)
# ------------------------------
  56797.09 8.163E-01 2.029E-01
  56823.24 8.164E-01 2.029E-01
  56849.40 8.163E-01 2.029E-01
  56875.58 8.163E-01 2.030E-01
  56901.76 8.163E-01 2.030E-01
  56927.96 8.163E-01 2.030E-01
  56954.17 8.162E-01 2.031E-01
  56980.40 8.162E-01 2.031E-01
  57006.63 8.162E-01 2.031E-01
  57032.88 8.161E-01 2.032E-01
  57059.14 8.160E-01 2.033E-01
  57085.41 8.159E-01 2.035E-01
  57111.69 8.157E-01 2.037E-01
  57137.99 8.156E-01 2.038E-01
  57164.30 8.154E-01 2.040E-01
  57190.62 8.153E-01 2.042E-01
  57216.95 8.151E-01 2.044E-01
  57243.29 8.150E-01 2.046E-01
  57269.65 8.149E-01 2.046E-01
  57296.02 8.149E-01 2.046E-01
  57322.40 8.150E-01 2.046E-01
  57348.79 8.151E-01 2.044E-01
  57375.20 8.153E-01 2.043E-01
  57401.61 8.154E-01 2.041E-01
  57428.04 8.156E-01 2.039E-01
  57454.48 8.157E-01 2.037E-01
  57480.94 8.158E-01 2.036E-01
  57507.40 8.159E-01 2.035E-01
  57533.88 8.159E-01 2.034E-01
  57560.37 8.160E-01 2.033E-01
  57586.87 8.161E-01 2.033E-01
  57613.39 8.161E-01 2.032E-01
  57639.91 8.162E-01 2.031E-01
  57666.45 8.162E-01 2.031E-01
  57693.00 8.162E-01 2.030E-01
  57719.57 8.163E-01 2.030E-01
  57746.14 8.163E-01 2.030E-01
  57772.73 8.163E-01 2.030E-01
  57799.33 8.163E-01 2.030E-01
  57825.94 8.162E-01 2.031E-01
  57852.57 8.161E-01 2.032E-01
  57879.20 8.160E-01 2.033E-01
  57905.85 8.157E-01 2.037E-01
  57932.51 8.154E-01 2.041E-01
  57959.19 8.150E-01 2.046E-01
  57985.87 8.144E-01 2.053E-01
  58012.57 8.138E-01 2.061E-01
  58039.28 8.131E-01 2.069E-01
  58066.00 8.126E-01 2.076E-01
  58092.74 8.121E-01 2.081E-01
  58119.49 8.118E-01 2.085E-01
  58146.25 8.117E-01 2.087E-01
  58173.02 8.117E-01 2.087E-01
  58199.80 8.117E-01 2.086E-01
  58226.60 8.118E-01 2.085E-01
  58253.41 8.118E-01 2.085E-01
  58280.23 8.117E-01 2.087E-01
  58307.06 8.113E-01 2.091E-01
  58333.91 8.108E-01 2.098E-01
  58360.77 8.099E-01 2.108E-01
  58387.64 8.088E-01 2.122E-01
  58414.52 8.074E-01 2.140E-01
  58441.42 8.057E-01 2.160E-01
  58468.32 8.036E-01 2.187E-01
  58495.24 8.011E-01 2.218E-01
  58522.18 7.981E-01 2.255E-01
  58549.12 7.951E-01 2.293E-01
  58576.08 7.922E-01 2.330E-01
  58603.05 7.896E-01 2.363E-01
  58630.03 7.876E-01 2.387E-01
  58657.03 7.864E-01 2.403E-01
  58684.03 7.859E-01 2.409E-01
  58711.05 7.861E-01 2.407E-01
  58738.08 7.870E-01 2.395E-01
  58765.13 7.885E-01 2.376E-01
  58792.19 7.906E-01 2.349E-01
  58819.26 7.934E-01 2.315E-01
  58846.34 7.965E-01 2.275E-01
  58873.43 7.998E-01 2.234E-01
  58900.54 8.031E-01 2.193E-01
  58927.66 8.060E-01 2.157E-01
  58954.79 8.084E-01 2.127E-01
  58981.93 8.101E-01 2.106E-01
  59009.09 8.114E-01 2.090E-01
  59036.26 8.121E-01 2.082E-01
  59063.44 8.126E-01 2.075E-01
  59090.64 8.130E-01 2.071E-01
  59117.84 8.132E-01 2.068E-01
  59145.06 8.136E-01 2.063E-01
  59172.29 8.139E-01 2.059E-01
  59199.54 8.143E-01 2.054E-01
  59226.79 8.146E-01 2.050E-01
  59254.06 8.149E-01 2.047E-01
  59281.35 8.150E-01 2.045E-01
  59308.64 8.152E-01 2.044E-01
  59335.95 8.152E-01 2.043E-01
  59363.27 8.152E-01 2.044E-01
  59390.60 8.150E-01 2.045E-01
  59417.94 8.148E-01 2.048E-01
  59445.30 8.144E-01 2.053E-01
  59472.67 8.136E-01 2.063E-01
  59500.06 8.126E-01 2.075E-01
  59527.45 8.109E-01 2.096E-01
  59554.86 8.083E-01 2.129E-01
  59582.28 8.049E-01 2.171E-01
  59609.71 8.001E-01 2.230E-01
  59637.16 7.943E-01 2.303E-01
  59664.62 7.873E-01 2.392E-01
  59692.09 7.786E-01 2.502E-01
  59719.57 7.686E-01 2.631E-01
  59747.07 7.584E-01 2.766E-01
  59774.58 7.484E-01 2.898E-01
  59802.10 7.391E-01 3.023E-01
  59829.63 7.316E-01 3.125E-01
  59857.18 7.263E-01 3.199E-01
  59884.74 7.232E-01 3.241E-01
  59912.31 7.228E-01 3.246E-01
  59939.90 7.251E-01 3.215E-01
  59967.49 7.297E-01 3.151E-01
  59995.10 7.367E-01 3.056E-01
  60022.73 7.452E-01 2.941E-01
  60050.36 7.543E-01 2.819E-01
  60078.01 7.635E-01 2.699E-01
  60105.67 7.718E-01 2.590E-01
  60133.35 7.782E-01 2.508E-01
  60161.04 7.824E-01 2.454E-01
  60188.73 7.843E-01 2.429E-01
  60216.45 7.843E-01 2.429E-01
  60244.17 7.826E-01 2.452E-01
  60271.91 7.789E-01 2.499E-01
  60299.66 7.737E-01 2.566E-01
  60327.42 7.675E-01 2.646E-01
  60355.20 7.614E-01 2.727E-01
  60382.99 7.560E-01 2.797E-01
  60410.79 7.521E-01 2.849E-01
  60438.61 7.504E-01 2.871E-01
  60466.43 7.511E-01 2.863E-01
  60494.27 7.535E-01 2.830E-01
  60522.13 7.575E-01 2.778E-01
  60549.99 7.615E-01 2.725E-01
  60577.87 7.653E-01 2.675E-01
  60605.76 7.680E-01 2.640E-01
  60633.67 7.695E-01 2.620E-01
  60661.58 7.692E-01 2.625E-01
  60689.51 7.678E-01 2.642E-01
  60717.46 7.652E-01 2.677E-01
  60745.41 7.609E-01 2.733E-01
  60773.38 7.549E-01 2.812E-01
  60801.36 7.479E-01 2.904E-01
  60829.36 7.399E-01 3.012E-01
  60857.36 7.289E-01 3.162E-01
  60885.39 7.166E-01 3.332E-01
  60913.42 7.025E-01 3.532E-01
  60941.46 6.866E-01 3.760E-01
  60969.52 6.712E-01 3.987E-01
  60997.60 6.571E-01 4.198E-01
  61025.68 6.461E-01 4.368E-01
  61053.78 6.396E-01 4.469E-01
  61081.89 6.381E-01 4.492E-01
  61110.01 6.423E-01 4.427E-01
  61138.15 6.512E-01 4.290E-01
  61166.30 6.645E-01 4.087E-01
  61194.46 6.809E-01 3.844E-01
  61222.64 6.992E-01 3.579E-01
  61250.82 7.171E-01 3.325E-01
  61279.03 7.339E-01 3.094E-01
  61307.24 7.482E-01 2.901E-01
  61335.47 7.580E-01 2.771E-01
  61363.71 7.640E-01 2.692E-01
  61391.96 7.658E-01 2.668E-01
  61420.23 7.644E-01 2.687E-01
  61448.51 7.596E-01 2.750E-01
  61476.80 7.519E-01 2.852E-01
  61505.10 7.427E-01 2.975E-01
  61533.42 7.315E-01 3.127E-01
  61561.75 7.200E-01 3.285E-01
  61590.10 7.095E-01 3.432E-01
  61618.46 7.012E-01 3.550E-01
  61646.83 6.961E-01 3.623E-01
  61675.21 6.948E-01 3.641E-01
  61703.61 6.971E-01 3.609E-01
  61732.02 7.022E-01 3.536E-01
  61760.44 7.091E-01 3.437E-01
  61788.88 7.162E-01 3.338E-01
  61817.33 7.225E-01 3.250E-01
  61845.79 7.264E-01 3.197E-01
  61874.26 7.279E-01 3.175E-01
  61902.75 7.266E-01 3.194E-01
  61931.25 7.206E-01 3.277E-01
  61959.77 7.121E-01 3.396E-01
  61988.30 7.000E-01 3.566E-01
  62016.84 6.843E-01 3.793E-01
  62045.39 6.658E-01 4.067E-01
  62073.96 6.455E-01 4.377E-01
  62102.54 6.249E-01 4.701E-01
  62131.13 6.051E-01 5.023E-01
  62159.74 5.879E-01 5.313E-01
  62188.36 5.750E-01 5.534E-01
  62216.99 5.668E-01 5.678E-01
  62245.64 5.624E-01 5.755E-01
  62274.30 5.619E-01 5.764E-01
  62302.97 5.646E-01 5.717E-01
  62331.66 5.705E-01 5.612E-01
  62360.35 5.807E-01 5.436E-01
  62389.07 5.951E-01 5.191E-01
  62417.79 6.143E-01 4.873E-01
  62446.53 6.367E-01 4.514E-01
  62475.28 6.612E-01 4.138E-01
  62504.05 6.851E-01 3.781E-01
  62532.83 7.049E-01 3.496E-01
  62561.62 7.197E-01 3.290E-01
  62590.42 7.282E-01 3.172E-01
  62619.24 7.305E-01 3.141E-01
  62648.07 7.272E-01 3.185E-01
  62676.92 7.200E-01 3.285E-01
  62705.78 7.105E-01 3.417E-01
  62734.65 7.002E-01 3.563E-01
  62763.53 6.895E-01 3.718E-01
  62792.43 6.799E-01 3.858E-01
  62821.34 6.730E-01 3.959E-01
  62850.26 6.689E-01 4.022E-01
  62879.20 6.682E-01 4.031E-01
  62908.15 6.711E-01 3.989E-01
  62937.12 6.770E-01 3.901E-01
  62966.10 6.845E-01 3.790E-01
  62995.09 6.923E-01 3.677E-01
  63024.09 6.986E-01 3.586E-01
  63053.11 7.015E-01 3.545E-01
  63082.14 7.007E-01 3.557E-01
  63111.18 6.950E-01 3.639E-01
  63140.24 6.843E-01 3.793E-01
  63169.31 6.690E-01 4.020E-01
  63198.40 6.506E-01 4.298E-01
  63227.50 6.306E-01 4.611E-01
  63256.61 6.108E-01 4.930E-01
  63285.73 5.937E-01 5.214E-01
  63314.87 5.814E-01 5.423E-01
  63344.02 5.749E-01 5.535E-01
  63373.19 5.749E-01 5.536E-01
  63402.37 5.798E-01 5.451E-01
  63431.56 5.881E-01 5.309E-01
  63460.76 5.980E-01 5.141E-01
  63489.98 6.084E-01 4.970E-01
  63519.22 6.172E-01 4.825E-01
  63548.46 6.253E-01 4.696E-01
  63577.72 6.316E-01 4.595E-01
  63606.99 6.375E-01 4.501E-01
  63636.28 6.439E-01 4.402E-01
  63665.58 6.493E-01 4.319E-01
  63694.89 6.555E-01 4.224E-01
  63724.22 6.618E-01 4.128E-01
  63753.56 6.684E-01 4.028E-01
  63782.91 6.752E-01 3.927E-01
  63812.28 6.822E-01 3.824E-01
  63841.66 6.892E-01 3.722E-01
  63871.06 6.954E-01 3.633E-01
  63900.46 7.012E-01 3.550E-01
  63929.88 7.055E-01 3.488E-01
  63959.32 7.086E-01 3.444E-01
  63988.77 7.106E-01 3.416E-01
  64018.23 7.121E-01 3.396E-01
  64047.71 7.124E-01 3.391E-01
  64077.19 7.125E-01 3.390E-01
  64106.70 7.130E-01 3.383E-01
  64136.21 7.133E-01 3.379E-01
  64165.74 7.133E-01 3.379E-01
  64195.29 7.128E-01 3.385E-01
  64224.84 7.105E-01 3.418E-01
  64254.41 7.065E-01 3.475E-01
  64284.00 7.004E-01 3.561E-01
  64313.60 6.920E-01 3.681E-01
  64343.21 6.814E-01 3.835E-01
  64372.83 6.706E-01 3.996E-01
  64402.47 6.607E-01 4.144E-01
  64432.13 6.522E-01 4.273E-01
  64461.79 6.456E-01 4.376E-01
  64491.47 6.408E-01 4.451E-01
  64521.16 6.376E-01 4.500E-01
  64550.87 6.350E-01 4.541E-01
  64580.59 6.316E-01 4.595E-01
  64610.33 6.285E-01 4.643E-01
  64640.08 6.258E-01 4.688E-01
  64669.84 6.244E-01 4.709E-01
  64699.61 6.251E-01 4.699E-01
  64729.40 6.280E-01 4.652E-01
  64759.20 6.328E-01 4.576E-01
  64789.02 6.387E-01 4.484E-01
  64818.85 6.458E-01 4.373E-01
  64848.70 6.532E-01 4.259E-01
  64878.55 6.608E-01 4.143E-01
  64908.43 6.697E-01 4.010E-01
  64938.31 6.798E-01 3.860E-01
  64968.21 6.901E-01 3.709E-01
  64998.12 7.005E-01 3.560E-01
  65028.05 7.098E-01 3.427E-01
  65057.99 7.177E-01 3.316E-01
  65087.94 7.227E-01 3.248E-01
  65117.91 7.245E-01 3.222E-01
  65147.89 7.237E-01 3.234E-01
  65177.89 7.206E-01 3.277E-01
  65207.90 7.156E-01 3.346E-01
  65237.92 7.094E-01 3.433E-01
  65267.96 7.031E-01 3.523E-01
  65298.01 6.970E-01 3.609E-01
  65328.08 6.914E-01 3.691E-01
  65358.15 6.858E-01 3.771E-01
  65388.25 6.797E-01 3.860E-01
  65418.35 6.728E-01 3.963E-01
  65448.47 6.659E-01 4.066E-01
  65478.61 6.598E-01 4.158E-01
  65508.76 6.550E-01 4.231E-01
  65538.92 6.529E-01 4.263E-01
  65569.09 6.531E-01 4.261E-01
  65599.28 6.547E-01 4.235E-01
  65629.49 6.568E-01 4.203E-01
  65659.70 6.571E-01 4.200E-01
  65689.94 6.540E-01 4.247E-01
  65720.18 6.463E-01 4.364E-01
  65750.44 6.354E-01 4.535E-01
  65780.71 6.213E-01 4.760E-01
  65811.00 6.066E-01 4.998E-01
  65841.30 5.942E-01 5.206E-01
  65871.62 5.857E-01 5.349E-01
  65901.94 5.830E-01 5.396E-01
  65932.29 5.870E-01 5.327E-01
  65962.64 5.975E-01 5.151E-01
  65993.02 6.125E-01 4.902E-01
  66023.40 6.307E-01 4.609E-01
  66053.80 6.498E-01 4.311E-01
  66084.21 6.682E-01 4.031E-01
  66114.64 6.851E-01 3.782E-01
  66145.08 6.995E-01 3.574E-01
  66175.53 7.108E-01 3.414E-01
  66206.00 7.186E-01 3.305E-01
  66236.49 7.225E-01 3.251E-01
  66266.98 7.220E-01 3.257E-01
  66297.49 7.169E-01 3.329E-01
  66328.02 7.084E-01 3.447E-01
  66358.56 6.969E-01 3.611E-01
  66389.11 6.850E-01 3.783E-01
  66419.68 6.741E-01 3.943E-01
  66450.26 6.667E-01 4.054E-01
  66480.85 6.634E-01 4.104E-01
  66511.46 6.644E-01 4.088E-01
  66542.09 6.695E-01 4.012E-01
  66572.73 6.770E-01 3.901E-01
  66603.38 6.862E-01 3.766E-01
  66634.04 6.952E-01 3.636E-01
  66664.72 7.025E-01 3.531E-01
  66695.42 7.065E-01 3.475E-01
  66726.12 7.056E-01 3.487E-01
  66756.85 7.000E-01 3.567E-01
  66787.58 6.908E-01 3.698E-01
  66818.33 6.796E-01 3.862E-01
  66849.10 6.681E-01 4.033E-01
  66879.88 6.596E-01 4.161E-01
  66910.67 6.547E-01 4.235E-01
  66941.48 6.530E-01 4.261E-01
  66972.30 6.532E-01 4.258E-01
  67003.14 6.543E-01 4.241E-01
  67033.99 6.536E-01 4.252E-01
  67064.85 6.494E-01 4.317E-01
  67095.73 6.420E-01 4.432E-01
  67126.62 6.315E-01 4.597E-01
  67157.53 6.200E-01 4.780E-01
  67188.45 6.099E-01 4.945E-01
  67219.38 6.029E-01 5.061E-01
  67250.33 6.004E-01 5.102E-01
  67281.30 6.018E-01 5.078E-01
  67312.27 6.072E-01 4.990E-01
  67343.27 6.147E-01 4.867E-01
  67374.27 6.219E-01 4.749E-01
  67405.29 6.274E-01 4.662E-01
  67436.33 6.309E-01 4.607E-01
  67467.38 6.334E-01 4.566E-01
  67498.44 6.355E-01 4.533E-01
  67529.52 6.391E-01 4.477E-01
  67560.61 6.461E-01 4.368E-01
  67591.72 6.566E-01 4.207E-01
  67622.84 6.683E-01 4.030E-01
  67653.97 6.804E-01 3.850E-01
  67685.12 6.909E-01 3.698E-01
  67716.29 6.982E-01 3.593E-01
  67747.47 7.012E-01 3.549E-01
  67778.66 7.008E-01 3.556E-01
  67809.87 6.978E-01 3.599E-01
  67841.09 6.938E-01 3.656E-01
  67872.32 6.901E-01 3.709E-01
  67903.57 6.885E-01 3.732E-01
  67934.84 6.887E-01 3.730E-01
  67966.12 6.907E-01 3.700E-01
  67997.41 6.948E-01 3.642E-01
  68028.72 6.990E-01 3.580E-01
  68060.04 7.028E-01 3.526E-01
  68091.38 7.042E-01 3.507E-01
  68122.73 7.027E-01 3.529E-01
  68154.09 6.968E-01 3.612E-01
  68185.47 6.864E-01 3.763E-01
  68216.87 6.717E-01 3.979E-01
  68248.28 6.535E-01 4.253E-01
  68279.70 6.325E-01 4.581E-01
  68311.14 6.105E-01 4.936E-01
  68342.59 5.885E-01 5.302E-01
  68374.05 5.681E-01 5.655E-01
  68405.54 5.513E-01 5.954E-01
  68437.03 5.380E-01 6.199E-01
  68468.54 5.297E-01 6.355E-01
  68500.07 5.270E-01 6.405E-01
  68531.61 5.291E-01 6.366E-01
  68563.16 5.352E-01 6.251E-01
  68594.73 5.451E-01 6.068E-01
  68626.31 5.564E-01 5.862E-01
  68657.91 5.696E-01 5.628E-01
  68689.52 5.834E-01 5.389E-01
  68721.15 5.982E-01 5.138E-01
  68752.79 6.134E-01 4.888E-01
  68784.44 6.298E-01 4.624E-01
  68816.11 6.460E-01 4.369E-01
  68847.80 6.615E-01 4.133E-01
  68879.50 6.762E-01 3.912E-01
  68911.21 6.896E-01 3.716E-01
  68942.94 7.018E-01 3.541E-01
  68974.68 7.123E-01 3.393E-01
  69006.44 7.220E-01 3.257E-01
  69038.21 7.302E-01 3.144E-01
  69070.00 7.373E-01 3.047E-01
  69101.80 7.419E-01 2.986E-01
  69133.61 7.438E-01 2.960E-01
  69165.45 7.436E-01 2.962E-01
  69197.29 7.406E-01 3.003E-01
  69229.15 7.345E-01 3.086E-01
  69261.03 7.258E-01 3.205E-01
  69292.92 7.139E-01 3.370E-01
  69324.82 6.991E-01 3.580E-01
  69356.74 6.822E-01 3.824E-01
  69388.67 6.632E-01 4.107E-01
  69420.62 6.430E-01 4.416E-01
  69452.58 6.230E-01 4.732E-01
  69484.56 6.029E-01 5.059E-01
  69516.55 5.853E-01 5.357E-01
  69548.56 5.709E-01 5.606E-01
  69580.58 5.603E-01 5.793E-01
  69612.62 5.550E-01 5.888E-01
  69644.67 5.555E-01 5.878E-01
  69676.74 5.612E-01 5.777E-01
  69708.82 5.723E-01 5.581E-01
  69740.91 5.863E-01 5.339E-01
  69773.02 6.023E-01 5.070E-01
  69805.15 6.181E-01 4.811E-01
  69837.29 6.323E-01 4.584E-01
  69869.44 6.441E-01 4.399E-01
  69901.61 6.528E-01 4.264E-01
  69933.80 6.596E-01 4.161E-01
  69966.00 6.656E-01 4.070E-01
  69998.21 6.718E-01 3.978E-01
  70030.44 6.796E-01 3.862E-01
  70062.68 6.900E-01 3.711E-01
  70094.94 7.011E-01 3.551E-01
  70127.22 7.129E-01 3.384E-01
  70159.50 7.221E-01 3.256E-01
  70191.81 7.287E-01 3.166E-01
  70224.12 7.320E-01 3.120E-01
  70256.46 7.318E-01 3.122E-01
  70288.81 7.285E-01 3.168E-01
  70321.17 7.236E-01 3.235E-01
  70353.55 7.177E-01 3.317E-01
  70385.94 7.119E-01 3.398E-01
  70418.35 7.060E-01 3.482E-01
  70450.77 7.009E-01 3.554E-01
  70483.21 6.956E-01 3.630E-01
  70515.66 6.906E-01 3.701E-01
  70548.12 6.853E-01 3.778E-01
  70580.61 6.794E-01 3.865E-01
  70613.10 6.735E-01 3.952E-01
  70645.62 6.680E-01 4.035E-01
  70678.14 6.634E-01 4.104E-01
  70710.68 6.595E-01 4.163E-01
  70743.24 6.573E-01 4.197E-01
  70775.81 6.560E-01 4.215E-01
  70808.40 6.556E-01 4.223E-01
  70841.00 6.550E-01 4.231E-01
  70873.62 6.550E-01 4.231E-01
  70906.25 6.546E-01 4.237E-01
  70938.90 6.545E-01 4.239E-01
  70971.56 6.543E-01 4.241E-01
  71004.24 6.530E-01 4.262E-01
  71036.93 6.507E-01 4.297E-01
  71069.64 6.454E-01 4.378E-01
  71102.36 6.376E-01 4.501E-01
  71135.10 6.271E-01 4.666E-01
  71167.85 6.139E-01 4.879E-01
  71200.62 6.000E-01 5.109E-01
  71233.40 5.866E-01 5.335E-01
  71266.20 5.755E-01 5.525E-01
  71299.01 5.671E-01 5.673E-01
  71331.84 5.629E-01 5.746E-01
  71364.68 5.619E-01 5.764E-01
  71397.54 5.640E-01 5.726E-01
  71430.41 5.658E-01 5.695E-01
  71463.30 5.671E-01 5.672E-01
  71496.20 5.658E-01 5.696E-01
  71529.12 5.611E-01 5.779E-01
  71562.05 5.539E-01 5.908E-01
  71595.00 5.447E-01 6.076E-01
  71627.97 5.361E-01 6.233E-01
  71660.95 5.306E-01 6.338E-01
  71693.94 5.296E-01 6.357E-01
  71726.95 5.347E-01 6.260E-01
  71759.98 5.447E-01 6.075E-01
  71793.02 5.600E-01 5.798E-01
  71826.07 5.782E-01 5.478E-01
  71859.14 5.966E-01 5.166E-01
  71892.23 6.142E-01 4.874E-01
  71925.33 6.284E-01 4.646E-01
  71958.44 6.393E-01 4.473E-01
  71991.58 6.460E-01 4.370E-01
  72024.72 6.492E-01 4.320E-01
  72057.88 6.496E-01 4.315E-01
  72091.06 6.497E-01 4.312E-01
  72124.25 6.491E-01 4.322E-01
  72157.46 6.500E-01 4.308E-01
  72190.69 6.525E-01 4.269E-01
  72223.92 6.565E-01 4.208E-01
  72257.18 6.606E-01 4.146E-01
  72290.45 6.634E-01 4.103E-01
  72323.73 6.643E-01 4.090E-01
  72357.03 6.619E-01 4.126E-01
  72390.34 6.558E-01 4.219E-01
  72423.68 6.466E-01 4.361E-01
  72457.02 6.339E-01 4.559E-01
  72490.38 6.194E-01 4.790E-01
  72523.76 6.049E-01 5.028E-01
  72557.15 5.900E-01 5.276E-01
  72590.56 5.766E-01 5.505E-01
  72623.98 5.651E-01 5.708E-01
  72657.42 5.557E-01 5.875E-01
  72690.87 5.494E-01 5.989E-01
  72724.34 5.457E-01 6.057E-01
  72757.82 5.440E-01 6.088E-01
  72791.32 5.437E-01 6.093E-01
  72824.84 5.446E-01 6.076E-01
  72858.37 5.463E-01 6.047E-01
  72891.91 5.483E-01 6.009E-01
  72925.48 5.511E-01 5.958E-01
  72959.05 5.558E-01 5.873E-01
  72992.64 5.622E-01 5.758E-01
  73026.25 5.712E-01 5.600E-01
  73059.87 5.835E-01 5.388E-01
  73093.51 5.974E-01 5.152E-01
  73127.17 6.121E-01 4.909E-01
  73160.84 6.257E-01 4.689E-01
  73194.52 6.371E-01 4.508E-01
  73228.22 6.455E-01 4.377E-01
  73261.94 6.502E-01 4.305E-01
  73295.67 6.525E-01 4.269E-01
  73329.42 6.530E-01 4.262E-01
  73363.18 6.503E-01 4.302E-01
  73396.96 6.464E-01 4.363E-01
  73430.75 6.394E-01 4.473E-01
  73464.56 6.293E-01 4.632E-01
  73498.39 6.164E-01 4.838E-01
  73532.23 6.016E-01 5.082E-01
  73566.08 5.866E-01 5.334E-01
  73599.95 5.736E-01 5.558E-01
  73633.84 5.640E-01 5.727E-01
  73667.74 5.604E-01 5.791E-01
  73701.66 5.617E-01 5.767E-01
  73735.60 5.678E-01 5.659E-01
  73769.55 5.779E-01 5.483E-01
  73803.51 5.902E-01 5.273E-01
  73837.49 6.038E-01 5.044E-01
  73871.49 6.177E-01 4.818E-01
  73905.50 6.303E-01 4.616E-01
  73939.53 6.423E-01 4.427E-01
  73973.57 6.531E-01 4.261E-01
  74007.63 6.608E-01 4.143E-01
  74041.71 6.664E-01 4.058E-01
  74075.80 6.683E-01 4.030E-01
  74109.90 6.656E-01 4.070E-01
  74144.03 6.587E-01 4.174E-01
  74178.16 6.468E-01 4.357E-01
  74212.32 6.323E-01 4.584E-01
  74246.49 6.165E-01 4.838E-01
  74280.67 6.020E-01 5.075E-01
  74314.87 5.897E-01 5.281E-01
  74349.09 5.812E-01 5.427E-01
  74383.32 5.765E-01 5.507E-01
  74417.57 5.754E-01 5.526E-01
  74451.83 5.769E-01 5.501E-01
  74486.11 5.809E-01 5.431E-01
  74520.41 5.852E-01 5.358E-01
  74554.72 5.897E-01 5.282E-01
  74589.04 5.945E-01 5.201E-01
  74623.39 5.968E-01 5.163E-01
  74657.75 5.960E-01 5.176E-01
  74692.12 5.938E-01 5.213E-01
  74726.51 5.872E-01 5.323E-01
  74760.92 5.775E-01 5.490E-01
  74795.34 5.653E-01 5.704E-01
  74829.78 5.518E-01 5.945E-01
  74864.23 5.406E-01 6.151E-01
  74898.70 5.332E-01 6.289E-01
  74933.18 5.334E-01 6.285E-01
  74967.68 5.418E-01 6.128E-01
  75002.20 5.591E-01 5.814E-01
  75036.73 5.831E-01 5.394E-01
  75071.28 6.115E-01 4.919E-01
  75105.85 6.389E-01 4.480E-01
  75140.43 6.631E-01 4.108E-01
  75175.02 6.814E-01 3.836E-01
  75209.64 6.940E-01 3.652E-01
  75244.27 6.995E-01 3.574E-01
  75278.91 6.995E-01 3.574E-01
  75313.57 6.960E-01 3.624E-01
  75348.25 6.904E-01 3.704E-01
  75382.94 6.829E-01 3.814E-01
  75417.65 6.761E-01 3.914E-01
  75452.37 6.709E-01 3.991E-01
  75487.11 6.685E-01 4.028E-01
  75521.87 6.695E-01 4.012E-01
  75556.64 6.737E-01 3.949E-01
  75591.43 6.813E-01 3.838E-01
  75626.23 6.903E-01 3.706E-01
  75661.05 6.996E-01 3.573E-01
  75695.89 7.067E-01 3.472E-01
  75730.74 7.105E-01 3.418E-01
  75765.61 7.101E-01 3.423E-01
  75800.49 7.061E-01 3.481E-01
  75835.39 6.982E-01 3.593E-01
  75870.31 6.875E-01 3.747E-01
  75905.24 6.745E-01 3.938E-01
  75940.19 6.607E-01 4.145E-01
  75975.16 6.463E-01 4.366E-01
  76010.14 6.322E-01 4.585E-01
  76045.13 6.196E-01 4.786E-01
  76080.15 6.087E-01 4.964E-01
  76115.18 6.003E-01 5.103E-01
  76150.22 5.935E-01 5.218E-01
  76185.28 5.890E-01 5.294E-01
  76220.36 5.856E-01 5.350E-01
  76255.45 5.829E-01 5.398E-01
  76290.56 5.797E-01 5.453E-01
  76325.69 5.756E-01 5.523E-01
  76360.83 5.694E-01 5.631E-01
  76395.99 5.618E-01 5.765E-01
  76431.16 5.525E-01 5.933E-01
  76466.35 5.424E-01 6.117E-01
  76501.56 5.332E-01 6.288E-01
  76536.79 5.272E-01 6.402E-01
  76572.02 5.239E-01 6.465E-01
  76607.28 5.241E-01 6.460E-01
  76642.55 5.273E-01 6.399E-01
  76677.84 5.322E-01 6.307E-01
  76713.14 5.378E-01 6.203E-01
  76748.47 5.419E-01 6.127E-01
  76783.80 5.448E-01 6.073E-01
  76819.16 5.466E-01 6.041E-01
  76854.52 5.475E-01 6.024E-01
  76889.91 5.473E-01 6.028E-01
  76925.31 5.472E-01 6.029E-01
  76960.73 5.465E-01 6.042E-01
  76996.17 5.447E-01 6.075E-01
  77031.62 5.415E-01 6.134E-01
  77067.08 5.372E-01 6.214E-01
  77102.57 5.316E-01 6.319E-01
  77138.07 5.261E-01 6.422E-01
  77173.58 5.210E-01 6.520E-01
  77209.12 5.181E-01 6.575E-01
  77244.66 5.169E-01 6.600E-01
  77280.23 5.186E-01 6.566E-01
  77315.81 5.214E-01 6.512E-01
  77351.41 5.249E-01 6.445E-01
  77387.02 5.272E-01 6.402E-01
  77422.66 5.285E-01 6.376E-01
  77458.30 5.287E-01 6.374E-01
  77493.97 5.276E-01 6.393E-01
  77529.65 5.256E-01 6.432E-01
  77565.34 5.238E-01 6.466E-01
  77601.06 5.222E-01 6.497E-01
  77636.79 5.199E-01 6.541E-01
  77672.53 5.174E-01 6.589E-01
  77708.29 5.121E-01 6.692E-01
  77744.07 5.026E-01 6.880E-01
  77779.87 4.888E-01 7.159E-01
  77815.68 4.705E-01 7.539E-01
  77851.51 4.492E-01 8.002E-01
  77887.35 4.283E-01 8.480E-01
  77923.21 4.081E-01 8.963E-01
  77959.09 3.910E-01 9.389E-01
  77994.99 3.767E-01 9.763E-01
  78030.90 3.647E-01 1.009E+00
  78066.82 3.542E-01 1.038E+00
  78102.77 3.430E-01 1.070E+00
  78138.73 3.312E-01 1.105E+00
  78174.70 3.196E-01 1.141E+00
  78210.70 3.095E-01 1.173E+00
  78246.71 3.026E-01 1.195E+00
  78282.74 2.990E-01 1.207E+00
  78318.78 2.997E-01 1.205E+00
  78354.84 3.045E-01 1.189E+00
  78390.91 3.132E-01 1.161E+00
  78427.01 3.264E-01 1.120E+00
  78463.12 3.422E-01 1.072E+00
  78499.24 3.603E-01 1.021E+00
  78535.39 3.800E-01 9.677E-01
  78571.55 3.992E-01 9.182E-01
  78607.72 4.161E-01 8.767E-01
  78643.92 4.303E-01 8.432E-01
  78680.13 4.399E-01 8.212E-01
  78716.35 4.458E-01 8.079E-01
  78752.59 4.482E-01 8.026E-01
  78788.85 4.487E-01 8.013E-01
  78825.13 4.501E-01 7.982E-01
  78861.42 4.519E-01 7.942E-01
  78897.73 4.546E-01 7.883E-01
  78934.06 4.578E-01 7.814E-01
  78970.40 4.603E-01 7.759E-01
  79006.76 4.614E-01 7.736E-01
  79043.14 4.603E-01 7.758E-01
  79079.53 4.568E-01 7.835E-01
  79115.94 4.502E-01 7.980E-01
  79152.37 4.414E-01 8.177E-01
  79188.81 4.316E-01 8.403E-01
  79225.27 4.207E-01 8.658E-01
  79261.75 4.099E-01 8.919E-01
  79298.25 3.984E-01 9.204E-01
  79334.76 3.870E-01 9.493E-01
  79371.28 3.751E-01 9.806E-01
  79407.83 3.619E-01 1.016E+00
  79444.39 3.466E-01 1.060E+00
  79480.97 3.299E-01 1.109E+00
  79517.56 3.118E-01 1.165E+00
  79554.17 2.931E-01 1.227E+00
  79590.80 2.765E-01 1.286E+00
  79627.45 2.634E-01 1.334E+00
  79664.11 2.556E-01 1.364E+00
  79700.79 2.536E-01 1.372E+00
  79737.49 2.579E-01 1.355E+00
  79774.20 2.666E-01 1.322E+00
  79810.93 2.797E-01 1.274E+00
  79847.68 2.956E-01 1.219E+00
  79884.44 3.115E-01 1.166E+00
  79921.22 3.264E-01 1.120E+00
  79958.02 3.395E-01 1.080E+00
  79994.83 3.506E-01 1.048E+00
  80031.67 3.591E-01 1.024E+00
  80068.51 3.651E-01 1.008E+00
  80105.38 3.687E-01 9.976E-01
  80142.26 3.718E-01 9.895E-01
  80179.16 3.750E-01 9.809E-01
  80216.08 3.801E-01 9.673E-01
  80253.01 3.888E-01 9.447E-01
  80289.96 4.008E-01 9.143E-01
  80326.93 4.152E-01 8.790E-01
  80363.91 4.299E-01 8.441E-01
  80400.92 4.428E-01 8.147E-01
  80437.93 4.516E-01 7.949E-01
  80474.97 4.565E-01 7.842E-01
  80512.02 4.555E-01 7.864E-01
  80549.09 4.486E-01 8.016E-01
  80586.18 4.375E-01 8.266E-01
  80623.28 4.247E-01 8.564E-01
  80660.40 4.118E-01 8.871E-01
  80697.54 4.008E-01 9.142E-01
  80734.70 3.937E-01 9.321E-01
  80771.87 3.913E-01 9.382E-01
  80809.06 3.928E-01 9.345E-01
  80846.26 3.973E-01 9.230E-01
  80883.49 4.040E-01 9.063E-01
  80920.73 4.111E-01 8.888E-01
  80957.99 4.169E-01 8.748E-01
  80995.26 4.205E-01 8.663E-01
  81032.55 4.208E-01 8.656E-01
  81069.86 4.185E-01 8.710E-01
  81107.19 4.149E-01 8.797E-01
  81144.53 4.108E-01 8.897E-01
  81181.89 4.082E-01 8.961E-01
  81219.27 4.078E-01 8.970E-01
  81256.67 4.127E-01 8.851E-01
  81294.08 4.235E-01 8.592E-01
  81331.51 4.407E-01 8.194E-01
  81368.96 4.632E-01 7.697E-01
  81406.42 4.899E-01 7.137E-01
  81443.90 5.189E-01 6.561E-01
  81481.40 5.459E-01 6.054E-01
  81518.92 5.671E-01 5.672E-01
  81556.45 5.809E-01 5.432E-01
  81594.00 5.843E-01 5.374E-01
  81631.57 5.762E-01 5.513E-01
  81669.15 5.580E-01 5.834E-01
  81706.76 5.321E-01 6.309E-01
  81744.38 5.007E-01 6.918E-01
  81782.01 4.665E-01 7.624E-01
  81819.67 4.322E-01 8.389E-01
  81857.34 3.993E-01 9.180E-01
  81895.03 3.687E-01 9.977E-01
  81932.74 3.399E-01 1.079E+00
  81970.46 3.120E-01 1.165E+00
  82008.20 2.833E-01 1.261E+00
  82045.96 2.538E-01 1.371E+00
  82083.74 2.239E-01 1.497E+00
  82121.53 1.962E-01 1.629E+00
  82159.34 1.729E-01 1.755E+00
  82197.17 1.578E-01 1.847E+00
  82235.01 1.541E-01 1.870E+00
  82272.88 1.633E-01 1.812E+00
  82310.76 1.843E-01 1.691E+00
  82348.65 2.152E-01 1.536E+00
  82386.57 2.537E-01 1.372E+00
  82424.50 2.940E-01 1.224E+00
  82462.45 3.319E-01 1.103E+00
  82500.42 3.650E-01 1.008E+00
  82538.41 3.919E-01 9.367E-01
  82576.41 4.109E-01 8.893E-01
  82614.43 4.224E-01 8.619E-01
  82652.47 4.280E-01 8.485E-01
  82690.52 4.286E-01 8.473E-01
  82728.59 4.252E-01 8.553E-01
  82766.69 4.188E-01 8.703E-01
  82804.79 4.106E-01 8.901E-01
  82842.92 4.026E-01 9.098E-01
  82881.06 3.960E-01 9.264E-01
  82919.22 3.912E-01 9.385E-01
  82957.40 3.878E-01 9.474E-01
  82995.60 3.855E-01 9.532E-01
  83033.81 3.833E-01 9.590E-01
  83072.04 3.792E-01 9.697E-01
  83110.29 3.716E-01 9.898E-01
  83148.55 3.597E-01 1.023E+00
  83186.84 3.448E-01 1.065E+00
  83225.14 3.271E-01 1.117E+00
  83263.46 3.088E-01 1.175E+00
  83301.79 2.924E-01 1.230E+00
  83340.15 2.812E-01 1.269E+00
  83378.52 2.781E-01 1.280E+00
  83416.91 2.834E-01 1.261E+00
  83455.32 2.974E-01 1.213E+00
  83493.74 3.189E-01 1.143E+00
  83532.18 3.445E-01 1.066E+00
  83570.64 3.697E-01 9.949E-01
  83609.12 3.922E-01 9.359E-01
  83647.62 4.085E-01 8.952E-01
  83686.13 4.180E-01 8.724E-01
  83724.66 4.199E-01 8.678E-01
  83763.21 4.154E-01 8.785E-01
  83801.78 4.061E-01 9.012E-01
  83840.36 3.949E-01 9.290E-01
  83878.96 3.838E-01 9.576E-01
  83917.58 3.738E-01 9.839E-01
  83956.22 3.663E-01 1.004E+00
  83994.88 3.620E-01 1.016E+00
  84033.55 3.608E-01 1.019E+00
  84072.24 3.620E-01 1.016E+00
  84110.95 3.664E-01 1.004E+00
  84149.68 3.724E-01 9.878E-01
  84188.42 3.799E-01 9.679E-01
  84227.18 3.881E-01 9.464E-01
  84265.97 3.958E-01 9.269E-01
  84304.76 4.016E-01 9.122E-01
  84343.58 4.040E-01 9.064E-01
  84382.41 4.018E-01 9.117E-01
  84421.26 3.961E-01 9.260E-01
  84460.13 3.873E-01 9.486E-01
  84499.02 3.754E-01 9.797E-01
  84537.93 3.624E-01 1.015E+00
  84576.85 3.502E-01 1.049E+00
  84615.79 3.390E-01 1.082E+00
  84654.75 3.311E-01 1.105E+00
  84693.73 3.270E-01 1.118E+00
  84732.72 3.272E-01 1.117E+00
  84771.74 3.307E-01 1.106E+00
  84810.77 3.370E-01 1.088E+00
  84849.82 3.443E-01 1.066E+00
  84888.88 3.509E-01 1.047E+00
  84927.97 3.563E-01 1.032E+00
  84967.07 3.607E-01 1.020E+00
  85006.19 3.648E-01 1.009E+00
  85045.33 3.693E-01 9.963E-01
  85084.49 3.760E-01 9.781E-01
  85123.66 3.845E-01 9.559E-01
  85162.86 3.941E-01 9.311E-01
  85202.07 4.032E-01 9.082E-01
  85241.30 4.105E-01 8.904E-01
  85280.54 4.155E-01 8.783E-01
  85319.81 4.168E-01 8.752E-01
  85359.09 4.160E-01 8.771E-01
  85398.39 4.136E-01 8.828E-01
  85437.71 4.089E-01 8.942E-01
  85477.05 4.027E-01 9.096E-01
  85516.41 3.955E-01 9.275E-01
  85555.78 3.863E-01 9.513E-01
  85595.17 3.759E-01 9.785E-01
  85634.58 3.650E-01 1.008E+00
  85674.01 3.543E-01 1.038E+00
  85713.46 3.441E-01 1.067E+00
  85752.92 3.351E-01 1.093E+00
  85792.40 3.274E-01 1.117E+00
  85831.91 3.212E-01 1.136E+00
  85871.42 3.158E-01 1.153E+00
  85910.96 3.122E-01 1.164E+00
  85950.52 3.094E-01 1.173E+00
  85990.09 3.089E-01 1.175E+00
  86029.68 3.112E-01 1.167E+00
  86069.29 3.169E-01 1.149E+00
  86108.92 3.274E-01 1.117E+00
  86148.57 3.424E-01 1.072E+00
  86188.23 3.622E-01 1.016E+00
  86227.92 3.856E-01 9.528E-01
  86267.62 4.113E-01 8.886E-01
  86307.34 4.363E-01 8.294E-01
  86347.08 4.597E-01 7.771E-01
  86386.83 4.781E-01 7.380E-01
  86426.61 4.902E-01 7.129E-01
  86466.40 4.958E-01 7.015E-01
  86506.21 4.954E-01 7.023E-01
  86546.04 4.896E-01 7.142E-01
  86585.89 4.805E-01 7.328E-01
  86625.75 4.705E-01 7.539E-01
  86665.64 4.595E-01 7.776E-01
  86705.54 4.485E-01 8.019E-01
  86745.46 4.382E-01 8.250E-01
  86785.40 4.291E-01 8.462E-01
  86825.36 4.201E-01 8.672E-01
  86865.34 4.119E-01 8.870E-01
  86905.33 4.046E-01 9.049E-01
  86945.35 3.975E-01 9.225E-01
  86985.38 3.904E-01 9.407E-01
  87025.43 3.829E-01 9.599E-01
  87065.50 3.759E-01 9.785E-01
  87105.58 3.686E-01 9.980E-01
  87145.69 3.622E-01 1.016E+00
  87185.81 3.567E-01 1.031E+00
  87225.96 3.538E-01 1.039E+00
  87266.12 3.538E-01 1.039E+00
  87306.30 3.581E-01 1.027E+00
  87346.49 3.663E-01 1.004E+00
  87386.71 3.788E-01 9.707E-01
  87426.95 3.949E-01 9.290E-01
  87467.20 4.134E-01 8.834E-01
  87507.47 4.312E-01 8.412E-01
  87547.76 4.475E-01 8.041E-01
  87588.07 4.599E-01 7.767E-01
  87628.40 4.686E-01 7.579E-01
  87668.74 4.730E-01 7.486E-01
  87709.11 4.728E-01 7.491E-01
  87749.49 4.699E-01 7.553E-01
  87789.89 4.644E-01 7.671E-01
  87830.32 4.563E-01 7.847E-01
  87870.75 4.462E-01 8.070E-01
  87911.21 4.357E-01 8.309E-01
  87951.69 4.244E-01 8.572E-01
  87992.18 4.142E-01 8.814E-01
  88032.70 4.060E-01 9.013E-01
  88073.23 3.998E-01 9.167E-01
  88113.78 3.964E-01 9.255E-01
  88154.35 3.954E-01 9.279E-01
  88194.94 3.969E-01 9.241E-01
  88235.55 4.011E-01 9.135E-01
  88276.17 4.071E-01 8.988E-01
  88316.82 4.141E-01 8.816E-01
  88357.48 4.204E-01 8.666E-01
  88398.16 4.253E-01 8.549E-01
  88438.86 4.273E-01 8.502E-01
  88479.58 4.259E-01 8.536E-01
  88520.32 4.221E-01 8.625E-01
  88561.08 4.180E-01 8.722E-01
  88601.85 4.158E-01 8.776E-01
  88642.65 4.170E-01 8.746E-01
  88683.46 4.209E-01 8.654E-01
  88724.29 4.276E-01 8.495E-01
  88765.14 4.352E-01 8.318E-01
  88806.01 4.417E-01 8.170E-01
  88846.90 4.454E-01 8.087E-01
  88887.81 4.479E-01 8.032E-01
  88928.73 4.484E-01 8.021E-01
  88969.68 4.472E-01 8.048E-01
  89010.64 4.449E-01 8.099E-01
  89051.63 4.420E-01 8.163E-01
  89092.63 4.382E-01 8.250E-01
  89133.65 4.334E-01 8.362E-01
  89174.69 4.271E-01 8.507E-01
  89215.75 4.206E-01 8.662E-01
  89256.82 4.134E-01 8.833E-01
  89297.92 4.055E-01 9.025E-01
  89339.03 3.969E-01 9.240E-01
  89380.17 3.863E-01 9.513E-01
  89421.32 3.753E-01 9.801E-01
  89462.49 3.637E-01 1.011E+00
  89503.68 3.529E-01 1.042E+00
  89544.89 3.443E-01 1.066E+00
  89586.12 3.404E-01 1.078E+00
  89627.37 3.414E-01 1.075E+00
  89668.64 3.461E-01 1.061E+00
  89709.92 3.531E-01 1.041E+00
  89751.23 3.604E-01 1.021E+00
  89792.55 3.647E-01 1.009E+00
  89833.89 3.624E-01 1.015E+00
  89875.25 3.519E-01 1.044E+00
  89916.63 3.328E-01 1.100E+00
  89958.03 3.055E-01 1.186E+00
  89999.45 2.727E-01 1.299E+00
  90040.89 2.369E-01 1.440E+00
  90082.35 2.038E-01 1.591E+00
  90123.82 1.774E-01 1.729E+00
  90165.32 1.612E-01 1.825E+00
  90206.83 1.586E-01 1.841E+00
  90248.37 1.687E-01 1.779E+00
  90289.92 1.907E-01 1.657E+00
  90331.49 2.209E-01 1.510E+00
  90373.08 2.548E-01 1.367E+00
  90414.69 2.887E-01 1.242E+00
  90456.32 3.191E-01 1.142E+00
  90497.97 3.447E-01 1.065E+00
  90539.64 3.620E-01 1.016E+00
  90581.32 3.706E-01 9.927E-01
  90623.03 3.712E-01 9.909E-01
  90664.76 3.638E-01 1.011E+00
  90706.50 3.501E-01 1.050E+00
  90748.26 3.318E-01 1.103E+00
  90790.05 3.106E-01 1.169E+00
  90831.85 2.898E-01 1.238E+00
  90873.67 2.704E-01 1.308E+00
  90915.51 2.536E-01 1.372E+00
  90957.37 2.412E-01 1.422E+00
  90999.25 2.333E-01 1.455E+00
  91041.15 2.295E-01 1.472E+00
  91083.06 2.289E-01 1.474E+00
  91125.00 2.289E-01 1.475E+00
  91166.96 2.262E-01 1.487E+00
  91208.93 2.177E-01 1.524E+00
  91250.93 2.018E-01 1.600E+00
  91292.94 1.795E-01 1.718E+00
  91334.98 1.520E-01 1.884E+00
  91377.03 1.243E-01 2.085E+00
  91419.10 1.001E-01 2.302E+00
  91461.19 8.194E-02 2.502E+00
  91503.30 7.390E-02 2.605E+00
  91545.43 7.624E-02 2.574E+00
  91587.58 8.855E-02 2.424E+00
  91629.75 1.103E-01 2.205E+00
  91671.94 1.382E-01 1.979E+00
  91714.15 1.700E-01 1.772E+00
  91756.38 2.025E-01 1.597E+00
  91798.62 2.334E-01 1.455E+00
  91840.89 2.599E-01 1.347E+00
  91883.18 2.815E-01 1.268E+00
  91925.48 2.969E-01 1.214E+00
  91967.81 3.078E-01 1.178E+00
  92010.15 3.137E-01 1.159E+00
  92052.51 3.158E-01 1.153E+00
  92094.90 3.147E-01 1.156E+00
  92137.30 3.117E-01 1.166E+00
  92179.72 3.068E-01 1.182E+00
  92222.16 3.000E-01 1.204E+00
  92264.62 2.915E-01 1.233E+00
  92307.11 2.816E-01 1.267E+00
  92349.61 2.689E-01 1.314E+00
  92392.13 2.531E-01 1.374E+00
  92434.67 2.336E-01 1.454E+00
  92477.22 2.103E-01 1.559E+00
  92519.80 1.833E-01 1.697E+00
  92562.40 1.543E-01 1.869E+00
  92605.02 1.251E-01 2.079E+00
  92647.66 9.780E-02 2.325E+00
  92690.31 7.549E-02 2.584E+00
  92732.99 5.963E-02 2.820E+00
  92775.69 5.270E-02 2.943E+00
  92818.40 5.451E-02 2.909E+00
  92861.14 6.582E-02 2.721E+00
  92903.90 8.571E-02 2.457E+00
  92946.67 1.129E-01 2.181E+00
  92989.47 1.446E-01 1.934E+00
  93032.28 1.786E-01 1.723E+00
  93075.11 2.121E-01 1.551E+00
  93117.97 2.426E-01 1.416E+00
  93160.84 2.675E-01 1.318E+00
  93203.74 2.858E-01 1.252E+00
  93246.65 2.974E-01 1.213E+00
  93289.58 3.026E-01 1.195E+00
  93332.54 3.026E-01 1.195E+00
  93375.51 2.987E-01 1.208E+00
  93418.50 2.915E-01 1.233E+00
  93461.51 2.812E-01 1.269E+00
  93504.54 2.680E-01 1.317E+00
  93547.60 2.513E-01 1.381E+00
  93590.67 2.312E-01 1.464E+00
  93633.76 2.078E-01 1.571E+00
  93676.87 1.817E-01 1.705E+00
  93720.00 1.544E-01 1.868E+00
  93763.15 1.268E-01 2.065E+00
  93806.32 1.005E-01 2.298E+00
  93849.51 7.729E-02 2.560E+00
  93892.72 5.809E-02 2.846E+00
  93935.96 4.381E-02 3.128E+00
  93979.21 3.526E-02 3.345E+00
  94022.48 3.320E-02 3.405E+00
  94065.77 3.786E-02 3.274E+00
  94109.08 4.926E-02 3.011E+00
  94152.41 6.688E-02 2.705E+00
  94195.76 8.900E-02 2.419E+00
  94239.13 1.141E-01 2.171E+00
  94282.52 1.408E-01 1.961E+00
  94325.93 1.663E-01 1.794E+00
  94369.36 1.892E-01 1.665E+00
  94412.81 2.088E-01 1.567E+00
  94456.28 2.236E-01 1.498E+00
  94499.77 2.342E-01 1.451E+00
  94543.28 2.402E-01 1.426E+00
  94586.81 2.420E-01 1.419E+00
  94630.36 2.403E-01 1.426E+00
  94673.93 2.351E-01 1.448E+00
  94717.52 2.265E-01 1.485E+00
  94761.13 2.144E-01 1.540E+00
  94804.76 1.986E-01 1.616E+00
  94848.41 1.792E-01 1.720E+00
  94892.08 1.565E-01 1.855E+00
  94935.77 1.315E-01 2.029E+00
  94979.48 1.056E-01 2.248E+00
  95023.21 8.102E-02 2.513E+00
  95066.96 5.934E-02 2.824E+00
  95110.73 4.174E-02 3.176E+00
  95154.52 2.864E-02 3.553E+00
  95198.34 2.093E-02 3.867E+00
  95242.17 1.802E-02 4.016E+00
  95286.02 1.945E-02 3.940E+00
  95329.89 2.576E-02 3.659E+00
  95373.78 3.607E-02 3.322E+00
  95417.70 5.062E-02 2.983E+00
  95461.63 6.855E-02 2.680E+00
  95505.58 8.889E-02 2.420E+00
  95549.55 1.108E-01 2.200E+00
  95593.55 1.330E-01 2.018E+00
  95637.56 1.547E-01 1.866E+00
  95681.60 1.754E-01 1.741E+00
  95725.65 1.941E-01 1.639E+00
  95769.72 2.104E-01 1.559E+00
  95813.82 2.232E-01 1.500E+00
  95857.93 2.311E-01 1.465E+00
  95902.07 2.329E-01 1.457E+00
  95946.22 2.276E-01 1.480E+00
  95990.40 2.150E-01 1.537E+00
  96034.60 1.958E-01 1.631E+00
  96078.81 1.714E-01 1.764E+00
  96123.05 1.441E-01 1.937E+00
  96167.31 1.161E-01 2.153E+00
  96211.59 8.976E-02 2.411E+00
  96255.88 6.636E-02 2.713E+00
  96300.20 4.771E-02 3.043E+00
  96344.54 3.394E-02 3.383E+00
  96388.90 2.593E-02 3.652E+00
  96433.28 2.364E-02 3.745E+00
  96477.68 2.713E-02 3.607E+00
  96522.10 3.620E-02 3.319E+00
  96566.54 5.037E-02 2.988E+00
  96611.00 6.937E-02 2.668E+00
  96655.49 9.155E-02 2.391E+00
  96699.99 1.160E-01 2.154E+00
  96744.51 1.406E-01 1.962E+00
  96789.06 1.635E-01 1.811E+00
  96833.62 1.830E-01 1.698E+00
  96878.20 1.977E-01 1.621E+00
  96922.81 2.071E-01 1.575E+00
  96967.44 2.104E-01 1.559E+00
  97012.08 2.077E-01 1.572E+00
  97056.75 1.992E-01 1.613E+00
  97101.44 1.855E-01 1.685E+00
  97146.14 1.675E-01 1.787E+00
  97190.87 1.463E-01 1.922E+00
  97235.62 1.236E-01 2.091E+00
  97280.39 1.005E-01 2.297E+00
  97325.18 7.889E-02 2.540E+00
  97369.99 5.971E-02 2.818E+00
  97414.82 4.419E-02 3.119E+00
  97459.68 3.268E-02 3.421E+00
  97504.55 2.582E-02 3.657E+00
  97549.44 2.410E-02 3.726E+00
  97594.36 2.766E-02 3.588E+00
  97639.29 3.710E-02 3.294E+00
  97684.25 5.176E-02 2.961E+00
  97729.22 7.181E-02 2.634E+00
  97774.22 9.579E-02 2.346E+00
  97819.24 1.223E-01 2.101E+00
  97864.28 1.498E-01 1.898E+00
  97909.33 1.767E-01 1.733E+00
  97954.41 2.009E-01 1.605E+00
  97999.51 2.207E-01 1.511E+00
  98044.64 2.346E-01 1.450E+00
  98089.78 2.413E-01 1.422E+00
  98134.94 2.400E-01 1.427E+00
  98180.13 2.308E-01 1.466E+00
  98225.33 2.142E-01 1.541E+00
  98270.55 1.919E-01 1.651E+00
  98315.80 1.656E-01 1.798E+00
  98361.07 1.378E-01 1.982E+00
  98406.36 1.104E-01 2.204E+00
  98451.66 8.498E-02 2.465E+00
  98496.99 6.267E-02 2.770E+00
  98542.34 4.422E-02 3.119E+00
  98587.72 2.963E-02 3.519E+00
  98633.11 1.886E-02 3.971E+00
  98678.52 1.136E-02 4.478E+00
  98723.96 6.632E-03 5.016E+00
  98769.41 3.781E-03 5.578E+00
  98814.89 2.123E-03 6.155E+00
  98860.38 1.243E-03 6.691E+00
  98905.90 9.245E-04 6.986E+00
  98951.44 8.265E-04 7.098E+00
  98997.00 1.152E-03 6.766E+00
  99042.58 1.657E-03 6.402E+00
  99088.18 2.785E-03 5.884E+00
  99133.80 4.533E-03 5.396E+00
  99179.45 7.047E-03 4.955E+00
  99225.11 1.041E-02 4.565E+00
  99270.80 1.450E-02 4.234E+00
  99316.50 1.893E-02 3.967E+00
  99362.23 2.313E-02 3.767E+00
  99407.98 2.645E-02 3.633E+00
  99453.75 2.827E-02 3.566E+00
  99499.54 2.832E-02 3.564E+00
  99545.35 2.679E-02 3.620E+00
  99591.19 2.435E-02 3.715E+00
  99637.04 2.192E-02 3.820E+00
  99682.92 2.090E-02 3.868E+00
  99728.81 2.247E-02 3.796E+00
  99774.73 2.793E-02 3.578E+00
  99820.67 3.815E-02 3.266E+00
  99866.63 5.360E-02 2.926E+00
  99912.61 7.374E-02 2.607E+00
  99958.61 9.780E-02 2.325E+00
 100004.64 1.244E-01 2.084E+00
 100050.68 1.513E-01 1.889E+00
 100096.75 1.764E-01 1.735E+00
 100142.83 1.976E-01 1.621E+00
 100188.94 2.135E-01 1.544E+00
 100235.07 2.229E-01 1.501E+00
 100281.22 2.255E-01 1.489E+00
 100327.39 2.214E-01 1.508E+00
 100373.59 2.108E-01 1.557E+00
 100419.80 1.945E-01 1.637E+00
 100466.04 1.734E-01 1.752E+00
 100512.29 1.490E-01 1.904E+00
 100558.57 1.230E-01 2.095E+00
 100604.87 9.727E-02 2.330E+00
 100651.19 7.359E-02 2.609E+00
 100697.54 5.333E-02 2.931E+00
 100743.90 3.723E-02 3.291E+00
 100790.28 2.553E-02 3.668E+00
 100836.69 1.804E-02 4.015E+00
 100883.12 1.405E-02 4.265E+00
 100929.57 1.222E-02 4.405E+00
 100976.04 1.203E-02 4.420E+00
 101022.53 1.245E-02 4.386E+00
 101069.04 1.266E-02 4.369E+00
 101115.58 1.233E-02 4.396E+00
 101162.13 1.131E-02 4.482E+00
 101208.71 9.667E-03 4.639E+00
 101255.31 7.706E-03 4.866E+00
 101301.93 5.734E-03 5.161E+00
 101348.57 3.998E-03 5.522E+00
 101395.24 2.636E-03 5.938E+00
 101441.92 1.674E-03 6.392E+00
 101488.63 1.042E-03 6.867E+00
 101535.35 7.274E-04 7.226E+00
 101582.10 7.598E-04 7.182E+00
 101628.87 1.200E-03 6.726E+00
 101675.67 2.412E-03 6.027E+00
 101722.48 4.898E-03 5.319E+00
 101769.32 8.959E-03 4.715E+00
 101816.17 1.564E-02 4.158E+00
 101863.05 2.556E-02 3.667E+00
 101909.95 3.947E-02 3.232E+00
 101956.87 5.719E-02 2.861E+00
 102003.82 7.869E-02 2.542E+00
 102050.78 1.031E-01 2.272E+00
 102097.77 1.285E-01 2.052E+00
 102144.78 1.531E-01 1.876E+00
 102191.81 1.751E-01 1.743E+00
 102238.86 1.926E-01 1.647E+00
 102285.93 2.044E-01 1.587E+00
 102333.03 2.098E-01 1.562E+00
 102380.14 2.081E-01 1.570E+00
 102427.28 1.995E-01 1.612E+00
 102474.44 1.844E-01 1.691E+00
 102521.62 1.638E-01 1.809E+00
 102568.83 1.394E-01 1.970E+00
 102616.05 1.136E-01 2.175E+00
 102663.30 8.861E-02 2.423E+00
 102710.57 6.699E-02 2.703E+00
 102757.86 4.993E-02 2.997E+00
 102805.17 3.854E-02 3.256E+00
 102852.51 3.293E-02 3.413E+00
 102899.86 3.256E-02 3.425E+00
 102947.24 3.578E-02 3.330E+00
 102994.64 4.112E-02 3.191E+00
 103042.06 4.708E-02 3.056E+00
 103089.50 5.163E-02 2.964E+00
 103136.97 5.369E-02 2.925E+00
 103184.45 5.260E-02 2.945E+00
 103231.96 4.848E-02 3.027E+00
 103279.49 4.204E-02 3.169E+00
 103327.05 3.433E-02 3.372E+00
 103374.62 2.640E-02 3.634E+00
 103422.22 1.913E-02 3.957E+00
 103469.83 1.307E-02 4.337E+00
 103517.47 8.563E-03 4.760E+00
 103565.14 5.657E-03 5.175E+00
 103612.82 4.680E-03 5.364E+00
 103660.53 5.732E-03 5.162E+00
 103708.25 9.155E-03 4.693E+00
 103756.00 1.524E-02 4.184E+00
 103803.78 2.469E-02 3.701E+00
 103851.57 3.779E-02 3.276E+00
 103899.39 5.452E-02 2.909E+00
 103947.22 7.424E-02 2.600E+00
 103995.08 9.612E-02 2.342E+00
 104042.96 1.185E-01 2.133E+00
 104090.87 1.394E-01 1.971E+00
 104138.79 1.572E-01 1.850E+00
 104186.74 1.705E-01 1.769E+00
 104234.71 1.785E-01 1.723E+00
 104282.71 1.806E-01 1.711E+00
 104330.72 1.768E-01 1.733E+00
 104378.76 1.673E-01 1.788E+00
 104426.81 1.529E-01 1.878E+00
 104474.90 1.348E-01 2.004E+00
 104523.00 1.148E-01 2.164E+00
 104571.12 9.528E-02 2.351E+00
 104619.27 7.837E-02 2.546E+00
 104667.44 6.634E-02 2.713E+00
 104715.63 6.053E-02 2.805E+00
 104763.84 6.123E-02 2.793E+00
 104812.08 6.784E-02 2.691E+00
 104860.34 7.867E-02 2.543E+00
 104908.62 9.133E-02 2.393E+00
 104956.92 1.029E-01 2.274E+00
 105005.25 1.115E-01 2.194E+00
 105053.59 1.157E-01 2.157E+00
 105101.96 1.146E-01 2.166E+00
 105150.35 1.085E-01 2.221E+00
 105198.77 9.839E-02 2.319E+00
 105247.20 8.552E-02 2.459E+00
 105295.66 7.128E-02 2.641E+00
 105344.14 5.694E-02 2.866E+00
 105392.65 4.347E-02 3.136E+00
 105441.17 3.194E-02 3.444E+00
 105489.72 2.292E-02 3.776E+00
 105538.29 1.672E-02 4.091E+00
 105586.88 1.401E-02 4.268E+00
 105635.50 1.457E-02 4.229E+00
 105684.13 1.912E-02 3.957E+00
 105732.79 2.745E-02 3.595E+00
 105781.47 3.980E-02 3.224E+00
 105830.18 5.548E-02 2.892E+00
 105878.91 7.419E-02 2.601E+00
 105927.65 9.420E-02 2.362E+00
 105976.43 1.139E-01 2.172E+00
 106025.22 1.312E-01 2.031E+00
 106074.04 1.440E-01 1.938E+00
 106122.88 1.505E-01 1.894E+00
 106171.74 1.500E-01 1.897E+00
 106220.62 1.429E-01 1.946E+00
 106269.53 1.300E-01 2.040E+00
 106318.46 1.149E-01 2.164E+00
 106367.41 9.957E-02 2.307E+00
 106416.38 8.801E-02 2.430E+00
 106465.38 8.281E-02 2.491E+00
 106514.40 8.571E-02 2.457E+00
 106563.44 9.689E-02 2.334E+00
 106612.51 1.153E-01 2.160E+00
 106661.59 1.383E-01 1.978E+00
 106710.70 1.636E-01 1.810E+00
 106759.83 1.875E-01 1.674E+00
 106808.99 2.073E-01 1.574E+00
 106858.17 2.204E-01 1.512E+00
 106907.37 2.256E-01 1.489E+00
 106956.59 2.220E-01 1.505E+00
 107005.84 2.099E-01 1.561E+00
 107055.10 1.904E-01 1.659E+00
 107104.39 1.654E-01 1.800E+00
 107153.71 1.371E-01 1.987E+00
 107203.04 1.083E-01 2.223E+00
 107252.40 8.156E-02 2.506E+00
 107301.78 5.815E-02 2.845E+00
 107351.19 4.033E-02 3.211E+00
 107400.62 2.759E-02 3.590E+00
 107450.07 2.067E-02 3.879E+00
 107499.54 1.888E-02 3.970E+00
 107549.03 2.240E-02 3.799E+00
 107598.55 3.009E-02 3.504E+00
 107648.09 4.143E-02 3.184E+00
 107697.66 5.512E-02 2.898E+00
 107747.24 6.964E-02 2.664E+00
 107796.85 8.293E-02 2.490E+00
 107846.49 9.327E-02 2.372E+00
 107896.14 9.908E-02 2.312E+00
 107945.82 1.005E-01 2.298E+00
 107995.52 9.812E-02 2.322E+00
 108045.24 9.522E-02 2.352E+00
 108094.99 9.371E-02 2.368E+00
 108144.76 9.756E-02 2.327E+00
 108194.55 1.087E-01 2.219E+00
 108244.37 1.288E-01 2.049E+00
 108294.21 1.563E-01 1.856E+00
 108344.07 1.894E-01 1.664E+00
 108393.95 2.241E-01 1.496E+00
 108443.86 2.560E-01 1.363E+00
 108493.79 2.810E-01 1.269E+00
 108543.74 2.953E-01 1.220E+00
 108593.72 2.969E-01 1.214E+00
 108643.72 2.852E-01 1.255E+00
 108693.74 2.613E-01 1.342E+00
 108743.78 2.283E-01 1.477E+00
 108793.85 1.899E-01 1.661E+00
 108843.94 1.505E-01 1.894E+00
 108894.06 1.138E-01 2.173E+00
 108944.20 8.210E-02 2.500E+00
 108994.36 5.717E-02 2.862E+00
 109044.54 3.833E-02 3.262E+00
 109094.75 2.567E-02 3.662E+00
 109144.98 1.688E-02 4.081E+00
 109195.23 1.130E-02 4.483E+00
 109245.51 7.319E-03 4.917E+00
 109295.81 5.082E-03 5.282E+00
 109346.13 3.307E-03 5.712E+00
 109396.47 2.163E-03 6.136E+00
 109446.84 1.339E-03 6.616E+00
 109497.23 7.664E-04 7.174E+00
 109547.65 4.068E-04 7.807E+00
 109598.09 1.611E-04 8.734E+00
 109648.55 2.193E-05 1.073E+01
 109699.03 1.000E-38 2.276E+02
 109749.54 1.000E-38 2.271E+02
 109800.07 1.000E-38 2.266E+02
 109850.63 1.000E-38 2.263E+02
 109901.21 1.000E-38 2.259E+02
 109951.81 1.000E-38 2.257E+02
 110002.43 1.000E-38 2.254E+02
 110053.08 1.000E-38 2.252E+02
 110103.75 1.000E-38 2.251E+02
 110154.45 1.000E-38 2.249E+02
 110205.16 1.000E-38 2.248E+02
 110255.90 1.000E-38 2.247E+02
 110306.67 1.000E-38 2.245E+02
 110357.46 1.000E-38 2.243E+02
 110408.27 1.000E-38 2.241E+02
 110459.10 1.000E-38 2.239E+02
 110509.96 1.000E-38 2.236E+02
 110560.84 1.000E-38 2.235E+02
 110611.75 1.000E-38 2.233E+02
 110662.68 1.000E-38 2.232E+02
 110713.63 1.000E-38 2.232E+02
 110764.60 1.000E-38 2.232E+02
 110815.60 1.000E-38 2.232E+02
 110866.62 1.000E-38 2.229E+02
 110917.67 1.000E-38 2.224E+02
 110968.74 1.000E-38 2.217E+02
 111019.83 1.000E-38 2.210E+02
 111070.95 1.000E-38 2.204E+02
 111122.09 1.000E-38 2.199E+02
 111173.25 1.000E-38 2.194E+02
 111224.44 1.000E-38 2.189E+02
 111275.65 1.000E-38 2.185E+02
 111326.88 1.000E-38 2.182E+02
 111378.14 1.000E-38 2.179E+02
 111429.42 1.000E-38 2.177E+02
 111480.73 1.000E-38 2.175E+02
 111532.05 1.000E-38 2.173E+02
 111583.41 1.000E-38 2.172E+02
 111634.78 1.000E-38 2.170E+02
 111686.18 1.000E-38 2.168E+02
 111737.60 1.000E-38 2.166E+02
 111789.05 1.000E-38 2.163E+02
 111840.52 1.000E-38 2.161E+02
 111892.02 1.000E-38 2.158E+02
 111943.53 1.000E-38 2.155E+02
 111995.08 1.000E-38 2.153E+02
 112046.64 1.000E-38 2.151E+02
 112098.23 1.000E-38 2.150E+02
 112149.84 1.000E-38 2.149E+02
 112201.48 1.000E-38 2.148E+02
 112253.14 1.000E-38 2.147E+02
 112304.82 1.000E-38 2.145E+02
 112356.53 1.000E-38 2.142E+02
 112408.26 1.000E-38 2.138E+02
 112460.02 1.000E-38 2.133E+02
 112511.80 1.000E-38 2.128E+02
 112563.60 1.000E-38 2.124E+02
 112615.43 1.000E-38 2.120E+02
 112667.28 1.000E-38 2.117E+02
 112719.15 1.000E-38 2.114E+02
 112771.05 1.000E-38 2.111E+02
 112822.98 1.000E-38 2.109E+02
 112874.92 1.000E-38 2.107E+02
 112926.89 1.000E-38 2.104E+02
 112978.89 1.000E-38 2.102E+02
 113030.90 1.000E-38 2.099E+02
 113082.95 1.000E-38 2.097E+02
 113135.01 1.000E-38 2.094E+02
 113187.10 1.000E-38 2.090E+02
 113239.22 1.000E-38 2.087E+02
 113291.36 1.000E-38 2.085E+02
 113343.52 1.000E-38 2.083E+02
 113395.70 1.000E-38 2.081E+02
 113447.91 1.000E-38 2.079E+02
 113500.15 1.000E-38 2.078E+02
 113552.41 1.000E-38 2.077E+02
 113604.69 1.000E-38 2.076E+02
 113656.99 1.000E-38 2.074E+02
 113709.33 1.000E-38 2.072E+02
 113761.68 1.000E-38 2.068E+02
 113814.06 1.000E-38 2.064E+02
 113866.46 1.000E-38 2.060E+02
 113918.89 1.000E-38 2.056E+02
 113971.34 1.000E-38 2.053E+02
 114023.81 1.000E-38 2.050E+02
 114076.31 1.000E-38 2.047E+02
 114128.84 1.000E-38 2.044E+02
 114181.38 1.000E-38 2.041E+02
 114233.96 1.000E-38 2.038E+02
 114286.55 1.000E-38 2.035E+02
 114339.17 1.000E-38 2.032E+02
 114391.82 1.000E-38 2.029E+02
 114444.49 1.000E-38 2.026E+02
 114497.18 1.000E-38 2.024E+02
 114549.90 1.000E-38 2.022E+02
 114602.64 1.000E-38 2.020E+02
 114655.40 1.000E-38 2.019E+02
 114708.19 1.000E-38 2.018E+02
 114761.01 1.000E-38 2.017E+02
 114813.85 1.000E-38 2.016E+02
 114866.71 1.000E-38 2.015E+02
 114919.60 1.000E-38 2.013E+02
 114972.51 1.000E-38 2.010E+02
 115025.45 1.000E-38 2.007E+02
 115078.41 1.000E-38 2.003E+02
 115131.39 1.000E-38 1.999E+02
 115184.40 1.000E-38 1.996E+02
 115237.43 1.000E-38 1.992E+02
 115290.49 1.000E-38 1.989E+02
 115343.58 1.000E-38 1.986E+02
 115396.68 1.000E-38 1.983E+02
 115449.81 1.000E-38 1.980E+02
 115502.97 1.000E-38 1.977E+02
 115556.15 1.000E-38 1.975E+02
 115609.36 1.000E-38 1.973E+02
 115662.58 1.000E-38 1.971E+02
 115715.84 1.000E-38 1.970E+02
 115769.12 1.000E-38 1.969E+02
 115822.42 1.000E-38 1.968E+02
 115875.75 1.000E-38 1.967E+02
 115929.10 1.000E-38 1.966E+02
 115982.48 1.000E-38 1.965E+02
 116035.88 1.000E-38 1.962E+02
 116089.30 1.000E-38 1.959E+02
 116142.75 1.000E-38 1.956E+02
 116196.23 1.000E-38 1.952E+02
 116249.73 1.000E-38 1.948E+02
 116303.25 1.000E-38 1.944E+02
 116356.80 1.000E-38 1.941E+02
 116410.37 1.000E-38 1.938E+02
 116463.97 1.000E-38 1.935E+02
 116517.60 1.000E-38 1.932E+02
 116571.24 1.000E-38 1.930E+02
 116624.92 1.000E-38 1.928E+02
 116678.61 1.000E-38 1.927E+02
 116732.33 1.000E-38 1.926E+02
 116786.08 1.000E-38 1.925E+02
 116839.85 1.000E-38 1.924E+02
 116893.65 1.000E-38 1.922E+02
 116947.47 1.000E-38 1.920E+02
 117001.31 1.000E-38 1.917E+02
 117055.18 1.000E-38 1.914E+02
 117109.08 1.000E-38 1.910E+02
 117163.00 1.000E-38 1.907E+02
 117216.94 1.000E-38 1.904E+02
 117270.91 1.000E-38 1.901E+02
 117324.91 1.000E-38 1.898E+02
 117378.93 1.000E-38 1.896E+02
 117432.97 1.000E-38 1.895E+02
 117487.04 1.000E-38 1.893E+02
 117541.13 1.000E-38 1.892E+02
 117595.25 1.000E-38 1.891E+02
 117649.40 1.000E-38 1.889E+02
 117703.57 1.000E-38 1.887E+02
 117757.76 1.000E-38 1.884E+02
 117811.98 1.000E-38 1.882E+02
 117866.22 1.000E-38 1.879E+02
 117920.49 1.000E-38 1.876E+02
 117974.78 1.000E-38 1.872E+02
 118029.10 1.000E-38 1.869E+02
 118083.44 1.000E-38 1.866E+02
 118137.81 1.000E-38 1.863E+02
 118192.21 1.000E-38 1.859E+02
 118246.63 1.000E-38 1.856E+02
 118301.07 1.000E-38 1.853E+02
 118355.54 1.000E-38 1.849E+02
